Data from USB2H049791_10-15-49-893.txt Node
Date: Fri Apr 25 10:15:49 CEST 2025
User: AGBaum-Andor
Spectrometer: USB2+H04979
Trigger mode: 4
Integration Time (sec): 1.000000E-3
Scans to average: 1
Electric dark correction enabled: true
Nonlinearity correction enabled: false
Boxcar width: 0
XAxis mode: Wavelengths
Number of Pixels in Spectrum: 2048
>>>>>Begin Spectral Data<<<<<
187.239	68.36
187.703	68.36
188.168	68.36
188.632	-8.47
189.096	-35.59
189.559	54.8
190.023	54.8
190.487	-55.93
190.951	-33.33
191.415	-71.75
191.879	-85.31
192.342	-31.07
192.806	-37.85
193.27	-58.19
193.733	43.5
194.197	52.54
194.661	-6.21
195.124	43.5
195.588	20.9
196.051	36.72
196.514	66.1
196.978	61.58
197.441	23.16
197.904	68.36
198.368	120.34
198.831	59.32
199.294	129.38
199.757	75.14
200.22	102.26
200.683	167.79
201.146	174.57
201.609	109.04
202.072	131.63
202.535	142.93
202.998	163.27
203.461	163.27
203.924	93.22
204.387	95.48
204.849	183.61
205.312	174.57
205.775	185.87
206.237	156.49
206.7	181.35
207.163	158.75
207.625	231.07
208.088	197.17
208.55	183.61
209.012	167.79
209.475	228.81
209.937	151.97
210.399	147.45
210.862	151.97
211.324	183.61
211.786	158.75
212.248	170.05
212.71	115.82
213.172	170.05
213.634	185.87
214.096	176.83
214.558	133.89
215.02	147.45
215.482	185.87
215.944	158.75
216.406	133.89
216.868	133.89
217.329	127.12
217.791	93.22
218.253	136.15
218.714	190.39
219.176	156.49
219.638	124.86
220.099	142.93
220.561	156.49
221.022	179.09
221.484	170.05
221.945	206.21
222.406	174.57
222.868	161.01
223.329	120.34
223.79	215.25
224.251	151.97
224.712	131.63
225.173	142.93
225.635	183.61
226.096	102.26
226.557	131.63
227.018	170.05
227.478	100
227.939	174.57
228.4	181.35
228.861	194.91
229.322	183.61
229.782	90.96
230.243	190.39
230.704	192.65
231.164	147.45
231.625	133.89
232.086	151.97
232.546	115.82
233.007	149.71
233.467	179.09
233.927	131.63
234.388	120.34
234.848	149.71
235.308	194.91
235.769	131.63
236.229	131.63
236.689	70.62
237.149	142.93
237.609	133.89
238.069	183.61
238.529	174.57
238.989	106.78
239.449	188.13
239.909	127.12
240.369	151.97
240.829	194.91
241.289	170.05
241.748	122.6
242.208	212.99
242.668	203.95
243.127	172.31
243.587	131.63
244.046	174.57
244.506	93.22
244.965	151.97
245.425	199.43
245.884	75.14
246.344	140.67
246.803	118.08
247.262	154.23
247.722	131.63
248.181	185.87
248.64	183.61
249.099	190.39
249.558	127.12
250.017	109.04
250.476	197.17
250.935	183.61
251.394	95.48
251.853	111.3
252.312	167.79
252.771	188.13
253.23	163.27
253.688	185.87
254.147	217.51
254.606	176.83
255.064	129.38
255.523	154.23
255.981	210.73
256.44	158.75
256.898	197.17
257.357	181.35
257.815	185.87
258.274	158.75
258.732	176.83
259.19	100
259.649	154.23
260.107	140.67
260.565	154.23
261.023	120.34
261.481	201.69
261.939	219.77
262.397	210.73
262.855	190.39
263.313	163.27
263.771	136.15
264.229	161.01
264.687	210.73
265.144	197.17
265.602	147.45
266.06	145.19
266.518	199.43
266.975	197.17
267.433	199.43
267.89	161.01
268.348	163.27
268.805	140.67
269.263	161.01
269.72	181.35
270.177	165.53
270.635	192.65
271.092	240.11
271.549	154.23
272.006	133.89
272.464	199.43
272.921	124.86
273.378	129.38
273.835	197.17
274.292	93.22
274.749	183.61
275.206	179.09
275.663	174.57
276.119	149.71
276.576	127.12
277.033	181.35
277.49	172.31
277.946	222.03
278.403	194.91
278.86	181.35
279.316	212.99
279.773	201.69
280.229	285.3
280.686	165.53
281.142	156.49
281.598	190.39
282.055	262.7
282.511	274
282.967	222.03
283.423	179.09
283.88	267.22
284.336	206.21
284.792	190.39
285.248	206.21
285.704	237.85
286.16	242.37
286.616	249.15
287.072	212.99
287.527	262.7
287.983	296.6
288.439	269.48
288.895	255.93
289.35	280.78
289.806	253.67
290.262	335.02
290.717	287.56
291.173	303.38
291.628	222.03
292.084	332.76
292.539	310.16
292.995	228.81
293.45	310.16
293.905	289.82
294.36	285.3
294.816	269.48
295.271	310.16
295.726	316.94
296.181	301.12
296.636	255.93
297.091	337.28
297.546	310.16
298.001	310.16
298.456	330.5
298.911	298.86
299.365	332.76
299.82	355.36
300.275	325.98
300.73	310.16
301.184	362.14
301.639	251.41
302.093	301.12
302.548	285.3
303.002	348.58
303.457	375.7
303.911	335.02
304.366	264.96
304.82	330.5
305.274	335.02
305.728	355.36
306.183	321.46
306.637	344.06
307.091	323.72
307.545	366.66
307.999	314.68
308.453	346.32
308.907	337.28
309.361	283.04
309.815	341.8
310.269	310.16
310.722	325.98
311.176	285.3
311.63	314.68
312.083	280.78
312.537	393.77
312.991	294.34
313.444	271.74
313.898	396.03
314.351	303.38
314.805	382.48
315.258	301.12
315.711	312.42
316.165	274
316.618	294.34
317.071	233.33
317.524	405.07
317.977	377.96
318.43	240.11
318.884	350.84
319.337	357.62
319.79	344.06
320.242	371.18
320.695	353.1
321.148	344.06
321.601	371.18
322.054	357.62
322.506	289.82
322.959	359.88
323.412	344.06
323.864	416.37
324.317	316.94
324.769	346.32
325.222	305.64
325.674	312.42
326.127	303.38
326.579	373.44
327.031	280.78
327.484	285.3
327.936	341.8
328.388	332.76
328.84	251.41
329.292	325.98
329.744	364.4
330.196	237.85
330.648	332.76
331.1	264.96
331.552	233.33
332.004	271.74
332.456	350.84
332.908	249.15
333.359	321.46
333.811	244.63
334.263	289.82
334.714	280.78
335.166	260.45
335.617	262.7
336.069	280.78
336.52	328.24
336.972	307.9
337.423	319.2
337.874	323.72
338.326	319.2
338.777	353.1
339.228	312.42
339.679	325.98
340.13	301.12
340.581	312.42
341.032	292.08
341.483	353.1
341.934	380.22
342.385	310.16
342.836	296.6
343.287	335.02
343.738	280.78
344.188	312.42
344.639	335.02
345.09	348.58
345.54	328.24
345.991	328.24
346.441	337.28
346.892	337.28
347.342	319.2
347.793	294.34
348.243	280.78
348.693	323.72
349.143	307.9
349.594	287.56
350.044	305.64
350.494	292.08
350.944	330.5
351.394	289.82
351.844	307.9
352.294	314.68
352.744	355.36
353.194	233.33
353.644	330.5
354.094	307.9
354.543	237.85
354.993	325.98
355.443	321.46
355.892	242.37
356.342	246.89
356.791	224.29
357.241	267.22
357.69	269.48
358.14	194.91
358.589	280.78
359.038	260.45
359.488	296.6
359.937	208.47
360.386	264.96
360.835	292.08
361.284	274
361.733	303.38
362.182	267.22
362.631	224.29
363.08	319.2
363.529	321.46
363.978	269.48
364.427	296.6
364.876	339.54
365.324	294.34
365.773	310.16
366.222	316.94
366.67	283.04
367.119	332.76
367.567	255.93
368.016	240.11
368.464	283.04
368.913	258.19
369.361	264.96
369.809	280.78
370.258	242.37
370.706	319.2
371.154	271.74
371.602	249.15
372.05	323.72
372.498	296.6
372.946	208.47
373.394	298.86
373.842	305.64
374.29	235.59
374.738	249.15
375.186	353.1
375.633	264.96
376.081	240.11
376.529	335.02
376.976	310.16
377.424	271.74
377.871	319.2
378.319	303.38
378.766	183.61
379.214	323.72
379.661	289.82
380.108	276.26
380.555	319.2
381.003	231.07
381.45	298.86
381.897	310.16
382.344	240.11
382.791	267.22
383.238	264.96
383.685	240.11
384.132	244.63
384.579	224.29
385.026	271.74
385.472	262.7
385.919	226.55
386.366	237.85
386.813	294.34
387.259	246.89
387.706	305.64
388.152	337.28
388.599	217.51
389.045	244.63
389.491	215.25
389.938	215.25
390.384	292.08
390.83	253.67
391.277	301.12
391.723	242.37
392.169	255.93
392.615	316.94
393.061	278.52
393.507	307.9
393.953	305.64
394.399	244.63
394.845	276.26
395.29	303.38
395.736	253.67
396.182	224.29
396.628	285.3
397.073	280.78
397.519	269.48
397.964	246.89
398.41	228.81
398.855	235.59
399.301	203.95
399.746	244.63
400.191	296.6
400.637	242.37
401.082	294.34
401.527	278.52
401.972	224.29
402.417	222.03
402.863	262.7
403.308	242.37
403.752	303.38
404.197	217.51
404.642	242.37
405.087	285.3
405.532	262.7
405.977	260.45
406.421	237.85
406.866	278.52
407.311	255.93
407.755	251.41
408.2	212.99
408.644	255.93
409.089	289.82
409.533	258.19
409.977	199.43
410.422	262.7
410.866	296.6
411.31	314.68
411.754	289.82
412.198	278.52
412.643	242.37
413.087	285.3
413.531	323.72
413.975	244.63
414.418	278.52
414.862	267.22
415.306	249.15
415.75	246.89
416.194	228.81
416.637	278.52
417.081	260.45
417.524	267.22
417.968	233.33
418.412	260.45
418.855	244.63
419.298	203.95
419.742	237.85
420.185	206.21
420.628	278.52
421.072	260.45
421.515	246.89
421.958	210.73
422.401	237.85
422.844	258.19
423.287	283.04
423.73	203.95
424.173	285.3
424.616	210.73
425.059	226.55
425.501	258.19
425.944	298.86
426.387	228.81
426.829	260.45
427.272	258.19
427.715	294.34
428.157	228.81
428.599	255.93
429.042	260.45
429.484	280.78
429.927	323.72
430.369	260.45
430.811	325.98
431.253	276.26
431.695	203.95
432.138	237.85
432.58	231.07
433.022	228.81
433.464	271.74
433.905	228.81
434.347	255.93
434.789	269.48
435.231	219.77
435.673	285.3
436.114	267.22
436.556	203.95
436.998	325.98
437.439	332.76
437.881	332.76
438.322	314.68
438.763	253.67
439.205	246.89
439.646	197.17
440.087	267.22
440.529	269.48
440.97	235.59
441.411	321.46
441.852	244.63
442.293	292.08
442.734	192.65
443.175	222.03
443.616	242.37
444.057	244.63
444.498	231.07
444.938	301.12
445.379	260.45
445.82	264.96
446.26	226.55
446.701	222.03
447.142	258.19
447.582	271.74
448.022	287.56
448.463	283.04
448.903	280.78
449.343	296.6
449.784	206.21
450.224	283.04
450.664	242.37
451.104	280.78
451.544	217.51
451.984	323.72
452.424	231.07
452.864	246.89
453.304	276.26
453.744	244.63
454.184	244.63
454.624	305.64
455.063	249.15
455.503	278.52
455.943	283.04
456.382	346.32
456.822	346.32
457.261	362.14
457.7	339.54
458.14	371.18
458.579	344.06
459.018	362.14
459.458	332.76
459.897	353.1
460.336	373.44
460.775	330.5
461.214	287.56
461.653	393.77
462.092	350.84
462.531	294.34
462.97	393.77
463.409	418.63
463.848	377.96
464.286	389.26
464.725	292.08
465.164	377.96
465.602	405.07
466.041	339.54
466.479	298.86
466.918	384.74
467.356	420.89
467.794	411.85
468.233	359.88
468.671	362.14
469.109	332.76
469.547	380.22
469.985	364.4
470.423	346.32
470.861	402.81
471.299	416.37
471.737	434.45
472.175	335.02
472.613	441.23
473.051	398.29
473.489	409.59
473.926	443.49
474.364	509.03
474.802	438.97
475.239	353.1
475.677	434.45
476.114	402.81
476.551	384.74
476.989	470.61
477.426	472.87
477.863	493.21
478.301	436.71
478.738	495.47
479.175	470.61
479.612	445.75
480.049	499.99
480.486	438.97
480.923	490.95
481.36	527.1
481.797	497.73
482.233	513.55
482.67	490.95
483.107	561
483.544	432.19
483.98	502.25
484.417	481.91
484.853	545.18
485.29	493.21
485.726	531.62
486.162	479.65
486.599	454.79
487.035	536.14
487.471	488.69
487.907	495.47
488.344	486.43
488.78	468.35
489.216	522.59
489.652	457.05
490.088	504.51
490.523	448.01
490.959	479.65
491.395	384.74
491.831	423.15
492.266	398.29
492.702	472.87
493.138	427.67
493.573	353.1
494.009	371.18
494.444	457.05
494.88	411.85
495.315	398.29
495.75	411.85
496.186	371.18
496.621	418.63
497.056	468.35
497.491	396.03
497.926	396.03
498.361	362.14
498.796	402.81
499.231	407.33
499.666	425.41
500.101	375.7
500.536	443.49
500.97	377.96
501.405	359.88
501.84	348.58
502.274	409.59
502.709	416.37
503.143	445.75
503.578	418.63
504.012	330.5
504.446	409.59
504.881	350.84
505.315	364.4
505.749	375.7
506.183	332.76
506.617	364.4
507.051	427.67
507.485	373.44
507.919	364.4
508.353	380.22
508.787	371.18
509.221	416.37
509.655	350.84
510.088	418.63
510.522	411.85
510.956	371.18
511.389	375.7
511.823	377.96
512.256	346.32
512.69	407.33
513.123	346.32
513.556	452.53
513.99	355.36
514.423	359.88
514.856	339.54
515.289	307.9
515.722	359.88
516.155	457.05
516.588	393.77
517.021	355.36
517.454	325.98
517.887	258.19
518.32	310.16
518.752	332.76
519.185	341.8
519.618	357.62
520.05	321.46
520.483	319.2
520.915	328.24
521.348	407.33
521.78	344.06
522.213	362.14
522.645	328.24
523.077	341.8
523.509	303.38
523.942	303.38
524.374	323.72
524.806	328.24
525.238	271.74
525.67	335.02
526.102	348.58
526.533	377.96
526.965	359.88
527.397	375.7
527.829	328.24
528.26	373.44
528.692	389.26
529.123	357.62
529.555	287.56
529.986	305.64
530.418	411.85
530.849	307.9
531.28	364.4
531.712	400.55
532.143	427.67
532.574	355.36
533.005	307.9
533.436	364.4
533.867	310.16
534.298	341.8
534.729	353.1
535.16	400.55
535.591	335.02
536.022	332.76
536.452	341.8
536.883	359.88
537.314	325.98
537.744	292.08
538.175	310.16
538.605	301.12
539.036	353.1
539.466	280.78
539.896	240.11
540.327	330.5
540.757	303.38
541.187	280.78
541.617	307.9
542.047	271.74
542.477	332.76
542.907	307.9
543.337	307.9
543.767	325.98
544.197	341.8
544.626	341.8
545.056	373.44
545.486	332.76
545.915	332.76
546.345	362.14
546.775	400.55
547.204	407.33
547.633	402.81
548.063	373.44
548.492	258.19
548.921	364.4
549.351	285.3
549.78	301.12
550.209	289.82
550.638	371.18
551.067	348.58
551.496	310.16
551.925	341.8
552.354	303.38
552.783	298.86
553.211	319.2
553.64	339.54
554.069	276.26
554.497	301.12
554.926	280.78
555.354	255.93
555.783	380.22
556.211	283.04
556.64	323.72
557.068	289.82
557.496	325.98
557.924	355.36
558.353	339.54
558.781	307.9
559.209	267.22
559.637	364.4
560.065	341.8
560.493	231.07
560.92	416.37
561.348	377.96
561.776	359.88
562.204	337.28
562.631	307.9
563.059	283.04
563.486	330.5
563.914	262.7
564.341	366.66
564.769	355.36
565.196	296.6
565.623	305.64
566.051	402.81
566.478	337.28
566.905	377.96
567.332	346.32
567.759	375.7
568.186	335.02
568.613	346.32
569.04	396.03
569.467	285.3
569.894	307.9
570.32	357.62
570.747	366.66
571.174	445.75
571.6	321.46
572.027	409.59
572.453	368.92
572.88	325.98
573.306	409.59
573.732	400.55
574.159	325.98
574.585	233.33
575.011	357.62
575.437	319.2
575.863	251.41
576.289	337.28
576.715	375.7
577.141	314.68
577.567	280.78
577.993	298.86
578.419	353.1
578.844	382.48
579.27	303.38
579.696	276.26
580.121	373.44
580.547	319.2
580.972	407.33
581.397	303.38
581.823	359.88
582.248	305.64
582.673	303.38
583.099	384.74
583.524	285.3
583.949	353.1
584.374	350.84
584.799	240.11
585.224	387
585.649	307.9
586.073	332.76
586.498	278.52
586.923	346.32
587.348	341.8
587.772	416.37
588.197	384.74
588.621	373.44
589.046	341.8
589.47	280.78
589.895	314.68
590.319	332.76
590.743	384.74
591.167	323.72
591.592	373.44
592.016	303.38
592.44	420.89
592.864	319.2
593.288	312.42
593.712	298.86
594.135	325.98
594.559	325.98
594.983	337.28
595.407	285.3
595.83	337.28
596.254	330.5
596.677	341.8
597.101	400.55
597.524	294.34
597.948	339.54
598.371	330.5
598.794	303.38
599.217	341.8
599.641	328.24
600.064	271.74
600.487	303.38
600.91	274
601.333	423.15
601.756	398.29
602.179	337.28
602.601	325.98
603.024	264.96
603.447	359.88
603.869	294.34
604.292	348.58
604.715	366.66
605.137	321.46
605.559	355.36
605.982	355.36
606.404	420.89
606.826	375.7
607.249	301.12
607.671	366.66
608.093	387
608.515	337.28
608.937	396.03
609.359	400.55
609.781	402.81
610.203	382.48
610.625	436.71
611.046	301.12
611.468	353.1
611.89	337.28
612.311	375.7
612.733	368.92
613.154	339.54
613.576	341.8
613.997	296.6
614.418	398.29
614.84	337.28
615.261	305.64
615.682	330.5
616.103	321.46
616.524	341.8
616.945	301.12
617.366	362.14
617.787	325.98
618.208	316.94
618.629	384.74
619.05	335.02
619.47	341.8
619.891	296.6
620.311	362.14
620.732	316.94
621.152	371.18
621.573	337.28
621.993	411.85
622.414	292.08
622.834	274
623.254	271.74
623.674	337.28
624.094	362.14
624.514	337.28
624.934	398.29
625.354	346.32
625.774	280.78
626.194	341.8
626.614	341.8
627.034	310.16
627.453	366.66
627.873	289.82
628.292	321.46
628.712	407.33
629.131	278.52
629.551	366.66
629.97	364.4
630.39	393.77
630.809	287.56
631.228	298.86
631.647	328.24
632.066	316.94
632.485	350.84
632.904	332.76
633.323	296.6
633.742	251.41
634.161	312.42
634.58	344.06
634.998	267.22
635.417	314.68
635.836	353.1
636.254	366.66
636.673	274
637.091	357.62
637.509	316.94
637.928	387
638.346	325.98
638.764	371.18
639.183	380.22
639.601	296.6
640.019	301.12
640.437	355.36
640.855	335.02
641.273	312.42
641.69	362.14
642.108	292.08
642.526	355.36
642.944	339.54
643.361	314.68
643.779	296.6
644.196	312.42
644.614	350.84
645.031	312.42
645.449	316.94
645.866	276.26
646.283	353.1
646.7	339.54
647.118	321.46
647.535	339.54
647.952	330.5
648.369	341.8
648.786	328.24
649.203	298.86
649.619	391.52
650.036	264.96
650.453	262.7
650.869	283.04
651.286	325.98
651.703	262.7
652.119	276.26
652.536	278.52
652.952	305.64
653.368	373.44
653.785	287.56
654.201	310.16
654.617	197.17
655.033	382.48
655.449	255.93
655.865	375.7
656.281	292.08
656.697	332.76
657.113	350.84
657.529	380.22
657.944	287.56
658.36	341.8
658.776	368.92
659.191	310.16
659.607	264.96
660.022	314.68
660.438	350.84
660.853	321.46
661.268	339.54
661.683	303.38
662.099	325.98
662.514	316.94
662.929	307.9
663.344	312.42
663.759	310.16
664.174	312.42
664.589	330.5
665.003	287.56
665.418	264.96
665.833	321.46
666.247	298.86
666.662	310.16
667.077	267.22
667.491	274
667.905	260.45
668.32	310.16
668.734	350.84
669.148	328.24
669.563	310.16
669.977	332.76
670.391	253.67
670.805	325.98
671.219	357.62
671.633	298.86
672.047	332.76
672.46	341.8
672.874	271.74
673.288	323.72
673.701	350.84
674.115	321.46
674.529	400.55
674.942	323.72
675.355	280.78
675.769	280.78
676.182	321.46
676.595	296.6
677.009	292.08
677.422	328.24
677.835	335.02
678.248	283.04
678.661	316.94
679.074	362.14
679.487	269.48
679.899	292.08
680.312	303.38
680.725	262.7
681.137	307.9
681.55	346.32
681.963	226.55
682.375	341.8
682.787	271.74
683.2	364.4
683.612	375.7
684.024	267.22
684.437	323.72
684.849	344.06
685.261	312.42
685.673	366.66
686.085	339.54
686.497	321.46
686.909	353.1
687.32	307.9
687.732	305.64
688.144	289.82
688.555	305.64
688.967	301.12
689.379	325.98
689.79	264.96
690.201	237.85
690.613	246.89
691.024	323.72
691.435	292.08
691.847	357.62
692.258	314.68
692.669	289.82
693.08	283.04
693.491	319.2
693.902	346.32
694.312	289.82
694.723	289.82
695.134	264.96
695.545	285.3
695.955	350.84
696.366	242.37
696.776	274
697.187	237.85
697.597	339.54
698.008	321.46
698.418	321.46
698.828	341.8
699.238	276.26
699.648	321.46
700.058	328.24
700.468	292.08
700.878	278.52
701.288	240.11
701.698	296.6
702.108	246.89
702.518	316.94
702.927	294.34
703.337	267.22
703.746	253.67
704.156	210.73
704.565	298.86
704.975	328.24
705.384	280.78
705.793	323.72
706.203	242.37
706.612	294.34
707.021	258.19
707.43	278.52
707.839	328.24
708.248	301.12
708.657	226.55
709.065	274
709.474	242.37
709.883	271.74
710.291	212.99
710.7	296.6
711.109	292.08
711.517	321.46
711.925	341.8
712.334	346.32
712.742	242.37
713.15	271.74
713.559	212.99
713.967	362.14
714.375	289.82
714.783	271.74
715.191	251.41
715.599	294.34
716.006	280.78
716.414	278.52
716.822	359.88
717.23	262.7
717.637	255.93
718.045	251.41
718.452	240.11
718.86	224.29
719.267	269.48
719.675	285.3
720.082	240.11
720.489	278.52
720.896	335.02
721.303	271.74
721.71	267.22
722.117	307.9
722.524	305.64
722.931	276.26
723.338	305.64
723.745	294.34
724.151	280.78
724.558	325.98
724.965	253.67
725.371	240.11
725.778	255.93
726.184	260.45
726.59	280.78
726.997	242.37
727.403	283.04
727.809	215.25
728.215	332.76
728.621	237.85
729.027	312.42
729.433	210.73
729.839	269.48
730.245	312.42
730.651	269.48
731.056	255.93
731.462	316.94
731.868	237.85
732.273	305.64
